0
Diameter:	   7.90
   1.00
Area:	  49.0167
GaugeLength:	  50.00
2009-1-1
ACO REVENIDO
GRUPO3 ACO REVENIDO
DataNumber:	2647
index	Load(kN)	Defor(mm)	Stroke(mm)	Time(s)
    0	  0.0000	  0.0000	   0.000	   0.000
    1	  0.0000	  0.5100	   0.000	   0.055
    2	  0.0000	  0.5100	   0.000	   0.115
    3	  0.0000	  0.5100	   0.005	   0.175
    4	  0.0200	  0.5100	   0.010	   0.235
    5	  0.0200	  0.5120	   0.015	   0.295
    6	  0.0200	  0.5120	   0.020	   0.355
    7	  0.0400	  0.5120	   0.025	   0.415
    8	  0.0400	  0.5120	   0.029	   0.475
    9	  0.0600	  0.5120	   0.035	   0.535
   10	  0.0600	  0.5140	   0.040	   0.595
   11	  0.0600	  0.5140	   0.044	   0.655
   12	  0.0600	  0.5140	   0.050	   0.715
   13	  0.0600	  0.5140	   0.055	   0.775
   14	  0.0600	  0.5140	   0.059	   0.835
   15	  0.0600	  0.5140	   0.064	   0.895
   16	  0.0600	  0.5140	   0.069	   0.955
   17	  0.0600	  0.5140	   0.074	   1.015
   18	  0.0600	  0.5140	   0.079	   1.075
   19	  0.0600	  0.5140	   0.084	   1.135
   20	  0.0600	  0.5140	   0.089	   1.195
   21	  0.0600	  0.5140	   0.094	   1.255
   22	  0.0600	  0.5140	   0.099	   1.315
   23	  0.0600	  0.5140	   0.104	   1.375
   24	  0.0600	  0.5140	   0.109	   1.435
   25	  0.0600	  0.5140	   0.114	   1.495
   26	  0.0600	  0.5140	   0.119	   1.555
   27	  0.0600	  0.5140	   0.124	   1.615
   28	  0.0600	  0.5140	   0.129	   1.675
   29	  0.0600	  0.5140	   0.134	   1.735
   30	  0.0600	  0.5140	   0.139	   1.795
   31	  0.0600	  0.5140	   0.144	   1.855
   32	  0.0600	  0.5140	   0.149	   1.915
   33	  0.0600	  0.5140	   0.154	   1.975
   34	  0.0600	  0.5140	   0.159	   2.035
   35	  0.0600	  0.5140	   0.164	   2.095
   36	  0.0600	  0.5140	   0.169	   2.155
   37	  0.0600	  0.5140	   0.174	   2.215
   38	  0.0600	  0.5140	   0.179	   2.275
   39	  0.0600	  0.5140	   0.184	   2.335
   40	  0.0600	  0.5140	   0.189	   2.395
   41	  0.0600	  0.5140	   0.194	   2.455
   42	  0.0600	  0.5140	   0.199	   2.515
   43	  0.0600	  0.5160	   0.204	   2.575
   44	  0.0600	  0.5160	   0.209	   2.635
   45	  0.0600	  0.5160	   0.214	   2.695
   46	  0.0600	  0.5140	   0.219	   2.755
   47	  0.0600	  0.5160	   0.224	   2.815
   48	  0.0600	  0.5160	   0.229	   2.875
   49	  0.0600	  0.5160	   0.234	   2.935
   50	  0.0600	  0.5140	   0.239	   2.995
   51	  0.0600	  0.5160	   0.244	   3.055
   52	  0.0600	  0.5160	   0.249	   3.115
   53	  0.0600	  0.5160	   0.254	   3.175
   54	  0.0600	  0.5160	   0.259	   3.235
   55	  0.0600	  0.5160	   0.264	   3.295
   56	  0.0600	  0.5160	   0.269	   3.355
   57	  0.0600	  0.5160	   0.274	   3.415
   58	  0.0600	  0.5160	   0.279	   3.475
   59	  0.0600	  0.5160	   0.284	   3.535
   60	  0.0600	  0.5160	   0.289	   3.595
   61	  0.0600	  0.5160	   0.294	   3.655
   62	  0.0600	  0.5160	   0.299	   3.715
   63	  0.0600	  0.5160	   0.304	   3.775
   64	  0.0600	  0.5160	   0.309	   3.835
   65	  0.0600	  0.5160	   0.314	   3.895
   66	  0.0600	  0.5160	   0.319	   3.955
   67	  0.0600	  0.5160	   0.324	   4.015
   68	  0.0600	  0.5160	   0.329	   4.075
   69	  0.0600	  0.5160	   0.334	   4.135
   70	  0.0600	  0.5160	   0.339	   4.195
   71	  0.0600	  0.5160	   0.344	   4.255
   72	  0.0600	  0.5160	   0.349	   4.315
   73	  0.0600	  0.5160	   0.354	   4.375
   74	  0.0800	  0.5160	   0.359	   4.435
   75	  0.0600	  0.5160	   0.364	   4.495
   76	  0.0800	  0.5160	   0.369	   4.555
   77	  0.0600	  0.5160	   0.374	   4.615
   78	  0.0600	  0.5160	   0.379	   4.675
   79	  0.0600	  0.5160	   0.384	   4.735
   80	  0.0600	  0.5160	   0.389	   4.795
   81	  0.0600	  0.5160	   0.394	   4.855
   82	  0.0600	  0.5160	   0.397	   4.915
   83	  0.0600	  0.5160	   0.404	   4.975
   84	  0.0600	  0.5160	   0.407	   5.035
   85	  0.0600	  0.5160	   0.414	   5.095
   86	  0.0600	  0.5180	   0.419	   5.155
   87	  0.0600	  0.5160	   0.422	   5.215
   88	  0.0800	  0.5160	   0.427	   5.275
   89	  0.0600	  0.5160	   0.433	   5.335
   90	  0.0600	  0.5160	   0.439	   5.395
   91	  0.0800	  0.5160	   0.442	   5.455
   92	  0.0800	  0.5160	   0.447	   5.515
   93	  0.0800	  0.5160	   0.452	   5.575
   94	  0.0800	  0.5160	   0.457	   5.635
   95	  0.0800	  0.5160	   0.462	   5.695
   96	  0.0800	  0.5160	   0.468	   5.755
   97	  0.0800	  0.5160	   0.472	   5.815
   98	  0.0800	  0.5160	   0.477	   5.875
   99	  0.0800	  0.5160	   0.482	   5.935
  100	  0.0800	  0.5180	   0.487	   5.995
  101	  0.0800	  0.5160	   0.492	   6.055
  102	  0.0800	  0.5160	   0.498	   6.115
  103	  0.0800	  0.5160	   0.502	   6.175
  104	  0.0800	  0.5180	   0.507	   6.235
  105	  0.0800	  0.5160	   0.512	   6.295
  106	  0.0800	  0.5160	   0.517	   6.355
  107	  0.0800	  0.5160	   0.522	   6.415
  108	  0.0800	  0.5160	   0.527	   6.475
  109	  0.1000	  0.5160	   0.532	   6.535
  110	  0.1000	  0.5160	   0.537	   6.595
  111	  0.1000	  0.5160	   0.542	   6.655
  112	  0.1200	  0.5160	   0.548	   6.715
  113	  0.1200	  0.5160	   0.553	   6.775
  114	  0.1400	  0.5160	   0.558	   6.835
  115	  0.1600	  0.5160	   0.562	   6.895
  116	  0.1800	  0.5160	   0.567	   6.955
  117	  0.2000	  0.5160	   0.572	   7.015
  118	  0.2200	  0.5160	   0.577	   7.075
  119	  0.2400	  0.5160	   0.582	   7.135
  120	  0.2800	  0.5160	   0.587	   7.195
  121	  0.3000	  0.5160	   0.592	   7.255
  122	  0.3400	  0.5140	   0.597	   7.315
  123	  0.3800	  0.5140	   0.602	   7.375
  124	  0.4000	  0.5140	   0.607	   7.435
  125	  0.4600	  0.5140	   0.613	   7.495
  126	  0.5000	  0.5140	   0.618	   7.555
  127	  0.5400	  0.5140	   0.623	   7.615
  128	  0.6000	  0.5140	   0.627	   7.675
  129	  0.6600	  0.5140	   0.632	   7.735
  130	  0.7000	  0.5140	   0.637	   7.795
  131	  0.7600	  0.5140	   0.642	   7.855
  132	  0.8200	  0.5140	   0.647	   7.915
  133	  0.8800	  0.5140	   0.652	   7.975
  134	  0.9400	  0.5140	   0.657	   8.035
  135	  1.0000	  0.5140	   0.662	   8.095
  136	  1.0800	  0.5140	   0.667	   8.155
  137	  1.1400	  0.5140	   0.673	   8.215
  138	  1.2000	  0.5140	   0.678	   8.275
  139	  1.2800	  0.5140	   0.681	   8.335
  140	  1.3400	  0.5120	   0.688	   8.395
  141	  1.4200	  0.5140	   0.692	   8.455
  142	  1.4800	  0.5140	   0.697	   8.515
  143	  1.5600	  0.5140	   0.701	   8.575
  144	  1.6200	  0.5140	   0.707	   8.635
  145	  1.7000	  0.5140	   0.711	   8.695
  146	  1.7800	  0.5140	   0.716	   8.755
  147	  1.8400	  0.5140	   0.721	   8.815
  148	  1.9200	  0.5140	   0.726	   8.875
  149	  2.0000	  0.5140	   0.731	   8.935
  150	  2.0600	  0.5140	   0.736	   8.995
  151	  2.1400	  0.5140	   0.741	   9.055
  152	  2.2200	  0.5140	   0.746	   9.115
  153	  2.3000	  0.5140	   0.751	   9.175
  154	  2.3600	  0.5140	   0.756	   9.235
  155	  2.4400	  0.5160	   0.761	   9.295
  156	  2.5200	  0.5160	   0.766	   9.355
  157	  2.5800	  0.5160	   0.771	   9.415
  158	  2.6400	  0.5160	   0.776	   9.475
  159	  2.7200	  0.5160	   0.781	   9.535
  160	  2.7800	  0.5160	   0.786	   9.595
  161	  2.8200	  0.5160	   0.791	   9.655
  162	  2.8600	  0.5160	   0.796	   9.715
  163	  2.8800	  0.5160	   0.801	   9.775
  164	  2.9000	  0.5160	   0.806	   9.835
  165	  2.9000	  0.5160	   0.811	   9.895
  166	  2.8800	  0.5160	   0.816	   9.955
  167	  2.7800	  0.5160	   0.821	  10.015
  168	  2.8000	  0.5160	   0.826	  10.075
  169	  2.8000	  0.5160	   0.831	  10.135
  170	  2.8400	  0.5160	   0.836	  10.195
  171	  2.8800	  0.5160	   0.841	  10.255
  172	  2.9200	  0.5160	   0.846	  10.315
  173	  2.9800	  0.5160	   0.851	  10.375
  174	  3.0200	  0.5160	   0.856	  10.435
  175	  3.0800	  0.5160	   0.861	  10.495
  176	  3.1200	  0.5180	   0.866	  10.555
  177	  3.1800	  0.5160	   0.871	  10.615
  178	  3.2400	  0.5180	   0.876	  10.675
  179	  3.3000	  0.5180	   0.881	  10.735
  180	  3.3400	  0.5160	   0.886	  10.795
  181	  3.4000	  0.5180	   0.891	  10.855
  182	  3.4600	  0.5180	   0.896	  10.915
  183	  3.5200	  0.5180	   0.901	  10.975
  184	  3.5600	  0.5180	   0.906	  11.035
  185	  3.6200	  0.5180	   0.911	  11.095
  186	  3.6600	  0.5180	   0.916	  11.155
  187	  3.7000	  0.5180	   0.921	  11.215
  188	  3.6600	  0.5180	   0.926	  11.275
  189	  3.6200	  0.5180	   0.931	  11.335
  190	  3.6200	  0.5180	   0.936	  11.395
  191	  3.6200	  0.5180	   0.941	  11.455
  192	  3.6200	  0.5180	   0.946	  11.515
  193	  3.6400	  0.5180	   0.951	  11.575
  194	  3.6600	  0.5180	   0.956	  11.635
  195	  3.6800	  0.5180	   0.961	  11.695
  196	  3.7200	  0.5200	   0.966	  11.755
  197	  3.7400	  0.5200	   0.971	  11.815
  198	  3.7600	  0.5200	   0.976	  11.875
  199	  3.7800	  0.5200	   0.981	  11.935
  200	  3.8000	  0.5180	   0.986	  11.995
  201	  3.8400	  0.5200	   0.991	  12.055
  202	  3.8600	  0.5180	   0.996	  12.115
  203	  3.9000	  0.5200	   1.001	  12.175
  204	  3.9400	  0.5200	   1.006	  12.235
  205	  3.9800	  0.5200	   1.011	  12.295
  206	  4.0200	  0.5200	   1.016	  12.355
  207	  4.0600	  0.5200	   1.020	  12.415
  208	  4.1000	  0.5200	   1.026	  12.475
  209	  4.1400	  0.5200	   1.030	  12.535
  210	  4.1800	  0.5200	   1.036	  12.595
  211	  4.2200	  0.5220	   1.040	  12.655
  212	  4.2600	  0.5220	   1.046	  12.715
  213	  4.3000	  0.5220	   1.050	  12.775
  214	  4.3400	  0.5220	   1.056	  12.835
  215	  4.3800	  0.5220	   1.060	  12.895
  216	  4.4200	  0.5220	   1.066	  12.955
  217	  4.4600	  0.5220	   1.070	  13.015
  218	  4.5000	  0.5220	   1.076	  13.075
  219	  4.5600	  0.5220	   1.080	  13.135
  220	  4.6000	  0.5220	   1.086	  13.195
  221	  4.6400	  0.5220	   1.090	  13.255
  222	  4.6800	  0.5220	   1.096	  13.315
  223	  4.7400	  0.5240	   1.100	  13.375
  224	  4.7800	  0.5220	   1.106	  13.435
  225	  4.8200	  0.5240	   1.110	  13.495
  226	  4.8800	  0.5240	   1.116	  13.555
  227	  4.9200	  0.5240	   1.120	  13.615
  228	  4.9600	  0.5240	   1.126	  13.675
  229	  5.0200	  0.5240	   1.130	  13.735
  230	  5.0600	  0.5240	   1.135	  13.795
  231	  5.1000	  0.5240	   1.140	  13.855
  232	  5.1600	  0.5260	   1.145	  13.915
  233	  5.2000	  0.5260	   1.150	  13.975
  234	  5.2600	  0.5260	   1.155	  14.035
  235	  5.3000	  0.5260	   1.160	  14.095
  236	  5.3400	  0.5260	   1.165	  14.155
  237	  5.4000	  0.5260	   1.170	  14.215
  238	  5.4400	  0.5260	   1.175	  14.275
  239	  5.5000	  0.5260	   1.180	  14.335
  240	  5.5400	  0.5260	   1.185	  14.395
  241	  5.5800	  0.5280	   1.190	  14.455
  242	  5.6400	  0.5280	   1.195	  14.515
  243	  5.6800	  0.5280	   1.200	  14.575
  244	  5.7400	  0.5280	   1.205	  14.635
  245	  5.7800	  0.5280	   1.210	  14.695
  246	  5.8400	  0.5280	   1.215	  14.755
  247	  5.8800	  0.5280	   1.220	  14.815
  248	  5.9400	  0.5280	   1.225	  14.875
  249	  5.9800	  0.5300	   1.230	  14.935
  250	  6.0200	  0.5300	   1.235	  14.995
  251	  6.0800	  0.5300	   1.240	  15.055
  252	  6.1200	  0.5300	   1.245	  15.115
  253	  6.1800	  0.5300	   1.250	  15.175
  254	  6.2200	  0.5300	   1.255	  15.235
  255	  6.2600	  0.5300	   1.260	  15.295
  256	  6.3200	  0.5300	   1.265	  15.355
  257	  6.3600	  0.5320	   1.270	  15.415
  258	  6.4200	  0.5320	   1.275	  15.475
  259	  6.4600	  0.5320	   1.280	  15.535
  260	  6.5200	  0.5320	   1.285	  15.595
  261	  6.5600	  0.5320	   1.290	  15.655
  262	  6.6200	  0.5320	   1.295	  15.715
  263	  6.6600	  0.5320	   1.300	  15.775
  264	  6.7000	  0.5340	   1.305	  15.835
  265	  6.7600	  0.5320	   1.310	  15.895
  266	  6.8200	  0.5340	   1.315	  15.955
  267	  6.8600	  0.5340	   1.320	  16.015
  268	  6.9000	  0.5340	   1.325	  16.075
  269	  6.9600	  0.5340	   1.330	  16.135
  270	  7.0000	  0.5340	   1.335	  16.195
  271	  7.0600	  0.5340	   1.340	  16.255
  272	  7.1000	  0.5340	   1.345	  16.315
  273	  7.1600	  0.5340	   1.350	  16.375
  274	  7.2000	  0.5360	   1.355	  16.435
  275	  7.2400	  0.5360	   1.360	  16.495
  276	  7.3000	  0.5360	   1.365	  16.555
  277	  7.3400	  0.5360	   1.370	  16.615
  278	  7.4000	  0.5360	   1.375	  16.675
  279	  7.4400	  0.5360	   1.380	  16.735
  280	  7.5000	  0.5380	   1.385	  16.795
  281	  7.5400	  0.5380	   1.390	  16.855
  282	  7.6000	  0.5360	   1.395	  16.915
  283	  7.6400	  0.5380	   1.400	  16.975
  284	  7.7000	  0.5380	   1.405	  17.035
  285	  7.7400	  0.5380	   1.410	  17.095
  286	  7.8000	  0.5380	   1.415	  17.155
  287	  7.8400	  0.5380	   1.420	  17.215
  288	  7.8800	  0.5400	   1.425	  17.275
  289	  7.9400	  0.5400	   1.430	  17.335
  290	  7.9800	  0.5400	   1.435	  17.395
  291	  8.0400	  0.5400	   1.440	  17.455
  292	  8.0800	  0.5400	   1.445	  17.515
  293	  8.1400	  0.5400	   1.450	  17.575
  294	  8.1800	  0.5400	   1.455	  17.635
  295	  8.2400	  0.5400	   1.460	  17.695
  296	  8.2800	  0.5400	   1.465	  17.755
  297	  8.3400	  0.5420	   1.470	  17.815
  298	  8.3800	  0.5420	   1.475	  17.875
  299	  8.4400	  0.5420	   1.480	  17.935
  300	  8.4800	  0.5420	   1.485	  17.995
  301	  8.5400	  0.5420	   1.490	  18.055
  302	  8.5800	  0.5420	   1.495	  18.115
  303	  8.6400	  0.5440	   1.500	  18.175
  304	  8.7000	  0.5440	   1.505	  18.235
  305	  8.7400	  0.5440	   1.510	  18.295
  306	  8.8000	  0.5440	   1.515	  18.355
  307	  8.8400	  0.5440	   1.520	  18.415
  308	  8.9000	  0.5440	   1.525	  18.475
  309	  8.9400	  0.5440	   1.530	  18.535
  310	  9.0000	  0.5440	   1.535	  18.595
  311	  9.0400	  0.5440	   1.540	  18.655
  312	  9.1000	  0.5460	   1.545	  18.715
  313	  9.1400	  0.5460	   1.550	  18.775
  314	  9.2000	  0.5460	   1.555	  18.835
  315	  9.2400	  0.5460	   1.560	  18.895
  316	  9.3000	  0.5480	   1.565	  18.955
  317	  9.3400	  0.5460	   1.570	  19.015
  318	  9.4000	  0.5460	   1.575	  19.075
  319	  9.4400	  0.5480	   1.580	  19.135
  320	  9.5000	  0.5480	   1.585	  19.195
  321	  9.5400	  0.5480	   1.590	  19.255
  322	  9.6000	  0.5480	   1.595	  19.315
  323	  9.6400	  0.5480	   1.600	  19.375
  324	  9.7000	  0.5480	   1.605	  19.435
  325	  9.7600	  0.5480	   1.610	  19.495
  326	  9.8000	  0.5500	   1.615	  19.555
  327	  9.8600	  0.5500	   1.620	  19.615
  328	  9.9000	  0.5500	   1.625	  19.675
  329	  9.9600	  0.5500	   1.630	  19.735
  330	 10.0000	  0.5500	   1.635	  19.795
  331	 10.0400	  0.5500	   1.640	  19.855
  332	 10.1000	  0.5500	   1.645	  19.915
  333	 10.1400	  0.5520	   1.650	  19.975
  334	 10.2000	  0.5520	   1.655	  20.035
  335	 10.2400	  0.5520	   1.660	  20.095
  336	 10.3000	  0.5520	   1.665	  20.155
  337	 10.3400	  0.5520	   1.670	  20.215
  338	 10.4000	  0.5520	   1.675	  20.275
  339	 10.4600	  0.5520	   1.680	  20.335
  340	 10.5000	  0.5540	   1.685	  20.395
  341	 10.5600	  0.5540	   1.690	  20.455
  342	 10.6000	  0.5540	   1.695	  20.515
  343	 10.6600	  0.5540	   1.700	  20.575
  344	 10.7200	  0.5540	   1.705	  20.635
  345	 10.7600	  0.5540	   1.710	  20.695
  346	 10.8000	  0.5540	   1.715	  20.755
  347	 10.8600	  0.5560	   1.720	  20.815
  348	 10.9200	  0.5540	   1.725	  20.875
  349	 10.9600	  0.5560	   1.730	  20.935
  350	 11.0000	  0.5560	   1.735	  20.995
  351	 11.0600	  0.5560	   1.740	  21.055
  352	 11.1200	  0.5560	   1.745	  21.115
  353	 11.1600	  0.5560	   1.750	  21.175
  354	 11.2000	  0.5560	   1.755	  21.235
  355	 11.2600	  0.5580	   1.760	  21.295
  356	 11.3200	  0.5560	   1.765	  21.355
  357	 11.3600	  0.5580	   1.770	  21.415
  358	 11.4200	  0.5580	   1.775	  21.475
  359	 11.4800	  0.5580	   1.780	  21.535
  360	 11.5200	  0.5580	   1.785	  21.595
  361	 11.5800	  0.5580	   1.790	  21.655
  362	 11.6200	  0.5580	   1.795	  21.715
  363	 11.6800	  0.5580	   1.800	  21.775
  364	 11.7200	  0.5600	   1.805	  21.835
  365	 11.7800	  0.5600	   1.810	  21.895
  366	 11.8400	  0.5600	   1.815	  21.955
  367	 11.9000	  0.5600	   1.820	  22.015
  368	 11.9400	  0.5600	   1.825	  22.075
  369	 12.0000	  0.5600	   1.830	  22.135
  370	 12.0400	  0.5600	   1.835	  22.195
  371	 12.1000	  0.5620	   1.840	  22.255
  372	 12.1400	  0.5620	   1.845	  22.315
  373	 12.2000	  0.5620	   1.850	  22.375
  374	 12.2600	  0.5620	   1.855	  22.435
  375	 12.3000	  0.5620	   1.860	  22.495
  376	 12.3600	  0.5620	   1.865	  22.555
  377	 12.4000	  0.5640	   1.870	  22.615
  378	 12.4600	  0.5640	   1.875	  22.675
  379	 12.5200	  0.5640	   1.880	  22.735
  380	 12.5600	  0.5640	   1.885	  22.795
  381	 12.6200	  0.5640	   1.890	  22.855
  382	 12.6800	  0.5640	   1.895	  22.915
  383	 12.7200	  0.5640	   1.900	  22.975
  384	 12.7800	  0.5660	   1.905	  23.035
  385	 12.8200	  0.5640	   1.910	  23.095
  386	 12.8800	  0.5640	   1.915	  23.155
  387	 12.9400	  0.5660	   1.920	  23.215
  388	 13.0000	  0.5660	   1.925	  23.275
  389	 13.0400	  0.5660	   1.930	  23.335
  390	 13.1000	  0.5660	   1.935	  23.395
  391	 13.1600	  0.5660	   1.940	  23.455
  392	 13.2000	  0.5680	   1.945	  23.515
  393	 13.2600	  0.5660	   1.950	  23.575
  394	 13.3200	  0.5680	   1.955	  23.635
  395	 13.3600	  0.5680	   1.960	  23.695
  396	 13.4200	  0.5680	   1.965	  23.755
  397	 13.4800	  0.5680	   1.970	  23.815
  398	 13.5200	  0.5680	   1.975	  23.875
  399	 13.5800	  0.5700	   1.980	  23.935
  400	 13.6400	  0.5700	   1.985	  23.995
  401	 13.6800	  0.5700	   1.990	  24.055
  402	 13.7400	  0.5700	   1.995	  24.115
  403	 13.8000	  0.5700	   2.000	  24.175
  404	 13.8600	  0.5700	   2.005	  24.235
  405	 13.9000	  0.5700	   2.010	  24.295
  406	 13.9600	  0.5700	   2.015	  24.355
  407	 14.0000	  0.5720	   2.020	  24.415
  408	 14.0600	  0.5700	   2.025	  24.475
  409	 14.1200	  0.5720	   2.030	  24.535
  410	 14.1600	  0.5720	   2.035	  24.595
  411	 14.2200	  0.5720	   2.040	  24.655
  412	 14.2800	  0.5740	   2.045	  24.715
  413	 14.3400	  0.5740	   2.050	  24.775
  414	 14.3800	  0.5720	   2.055	  24.835
  415	 14.4400	  0.5740	   2.060	  24.895
  416	 14.5000	  0.5740	   2.065	  24.955
  417	 14.5400	  0.5740	   2.070	  25.015
  418	 14.6000	  0.5740	   2.075	  25.075
  419	 14.6600	  0.5740	   2.080	  25.135
  420	 14.7000	  0.5740	   2.085	  25.195
  421	 14.7600	  0.5740	   2.090	  25.255
  422	 14.8200	  0.5760	   2.095	  25.315
  423	 14.8600	  0.5760	   2.100	  25.375
  424	 14.9200	  0.5760	   2.105	  25.435
  425	 14.9800	  0.5760	   2.110	  25.495
  426	 15.0200	  0.5760	   2.115	  25.555
  427	 15.0800	  0.5780	   2.120	  25.615
  428	 15.1200	  0.5760	   2.125	  25.675
  429	 15.1800	  0.5780	   2.130	  25.735
  430	 15.2400	  0.5780	   2.135	  25.795
  431	 15.3000	  0.5780	   2.140	  25.855
  432	 15.3400	  0.5780	   2.145	  25.915
  433	 15.4000	  0.5780	   2.150	  25.975
  434	 15.4600	  0.5780	   2.155	  26.035
  435	 15.5000	  0.5780	   2.159	  26.095
  436	 15.5600	  0.5800	   2.165	  26.155
  437	 15.6200	  0.5800	   2.169	  26.215
  438	 15.6800	  0.5800	   2.175	  26.275
  439	 15.7200	  0.5800	   2.179	  26.335
  440	 15.7800	  0.5800	   2.185	  26.395
  441	 15.8400	  0.5800	   2.189	  26.455
  442	 15.9000	  0.5820	   2.195	  26.515
  443	 15.9400	  0.5820	   2.200	  26.575
  444	 16.0000	  0.5820	   2.205	  26.635
  445	 16.0600	  0.5820	   2.210	  26.695
  446	 16.1000	  0.5820	   2.215	  26.755
  447	 16.1600	  0.5820	   2.217	  26.815
  448	 16.2000	  0.5820	   2.222	  26.875
  449	 16.2600	  0.5820	   2.227	  26.935
  450	 16.3200	  0.5840	   2.232	  26.995
  451	 16.3800	  0.5840	   2.237	  27.055
  452	 16.4200	  0.5840	   2.243	  27.115
  453	 16.4800	  0.5840	   2.247	  27.175
  454	 16.5400	  0.5840	   2.253	  27.235
  455	 16.5800	  0.5840	   2.257	  27.295
  456	 16.6400	  0.5860	   2.263	  27.355
  457	 16.7000	  0.5860	   2.267	  27.415
  458	 16.7600	  0.5860	   2.273	  27.475
  459	 16.8000	  0.5860	   2.277	  27.535
  460	 16.8600	  0.5860	   2.283	  27.595
  461	 16.9200	  0.5860	   2.287	  27.655
  462	 16.9800	  0.5860	   2.293	  27.715
  463	 17.0400	  0.5860	   2.297	  27.775
  464	 17.0800	  0.5860	   2.303	  27.835
  465	 17.1400	  0.5880	   2.307	  27.895
  466	 17.2000	  0.5880	   2.312	  27.955
  467	 17.2600	  0.5880	   2.317	  28.015
  468	 17.3200	  0.5880	   2.322	  28.075
  469	 17.3600	  0.5880	   2.327	  28.135
  470	 17.4200	  0.5900	   2.332	  28.195
  471	 17.4800	  0.5900	   2.337	  28.255
