0
Diameter:	   7.85
   1.00
Area:	  48.3982
GaugeLength:	  50.00
2009-1-1
aco temp 
001
DataNumber:	1641
index	Load(kN)	Defor(mm)	Stroke(mm)	Time(s)
    0	  0.0000	  0.0000	   0.000	   0.000
    1	  0.0000	  0.0000	   0.000	   0.055
    2	  0.0000	  0.0000	   0.000	   0.115
    3	  0.0000	  0.0000	   0.000	   0.175
    4	  0.0000	  0.0050	   0.005	   0.235
    5	  0.0000	  0.0088	   0.009	   0.295
    6	  0.0000	  0.0137	   0.014	   0.355
    7	  0.0000	  0.0187	   0.019	   0.415
    8	  0.0000	  0.0237	   0.024	   0.475
    9	  0.0000	  0.0287	   0.029	   0.535
   10	  0.0000	  0.0337	   0.034	   0.595
   11	  0.0000	  0.0388	   0.039	   0.655
   12	  0.0400	  0.0437	   0.044	   0.715
   13	  0.1000	  0.0487	   0.049	   0.775
   14	  0.1400	  0.0537	   0.054	   0.835
   15	  0.1600	  0.0587	   0.059	   0.895
   16	  0.1600	  0.0637	   0.064	   0.955
   17	  0.1600	  0.0688	   0.069	   1.015
   18	  0.1600	  0.0737	   0.074	   1.075
   19	  0.1600	  0.0787	   0.079	   1.135
   20	  0.1600	  0.0837	   0.084	   1.195
   21	  0.1600	  0.0887	   0.089	   1.255
   22	  0.1600	  0.0938	   0.094	   1.315
   23	  0.1600	  0.0987	   0.099	   1.375
   24	  0.1600	  0.1037	   0.104	   1.435
   25	  0.1600	  0.1088	   0.109	   1.495
   26	  0.1600	  0.1137	   0.114	   1.555
   27	  0.1600	  0.1187	   0.119	   1.615
   28	  0.1600	  0.1237	   0.124	   1.675
   29	  0.1600	  0.1287	   0.129	   1.735
   30	  0.1800	  0.1337	   0.134	   1.795
   31	  0.2400	  0.1388	   0.139	   1.855
   32	  0.3000	  0.1437	   0.144	   1.915
   33	  0.3600	  0.1487	   0.149	   1.975
   34	  0.4200	  0.1538	   0.154	   2.035
   35	  0.5000	  0.1587	   0.159	   2.095
   36	  0.5800	  0.1637	   0.164	   2.155
   37	  0.6400	  0.1688	   0.169	   2.215
   38	  0.7000	  0.1737	   0.174	   2.275
   39	  0.7600	  0.1787	   0.179	   2.335
   40	  0.8200	  0.1837	   0.184	   2.395
   41	  0.8400	  0.1887	   0.189	   2.455
   42	  0.8800	  0.1937	   0.194	   2.515
   43	  0.9200	  0.1987	   0.199	   2.575
   44	  0.9400	  0.2037	   0.204	   2.635
   45	  0.9800	  0.2087	   0.209	   2.695
   46	  1.0000	  0.2137	   0.214	   2.755
   47	  1.0200	  0.2188	   0.219	   2.815
   48	  1.0400	  0.2237	   0.224	   2.875
   49	  1.0400	  0.2287	   0.229	   2.935
   50	  1.0600	  0.2338	   0.234	   2.995
   51	  1.0600	  0.2387	   0.239	   3.055
   52	  1.0800	  0.2437	   0.244	   3.115
   53	  1.0800	  0.2488	   0.249	   3.175
   54	  1.1000	  0.2537	   0.254	   3.235
   55	  1.1000	  0.2587	   0.259	   3.295
   56	  1.1200	  0.2637	   0.264	   3.355
   57	  1.1200	  0.2687	   0.269	   3.415
   58	  1.1200	  0.2738	   0.274	   3.475
   59	  1.1400	  0.2788	   0.279	   3.535
   60	  1.1400	  0.2837	   0.284	   3.595
   61	  1.1400	  0.2887	   0.289	   3.655
   62	  1.1600	  0.2937	   0.294	   3.715
   63	  1.1600	  0.2987	   0.299	   3.775
   64	  1.1800	  0.3037	   0.304	   3.835
   65	  1.1800	  0.3088	   0.309	   3.895
   66	  1.1800	  0.3137	   0.314	   3.955
   67	  1.2000	  0.3187	   0.319	   4.015
   68	  1.2000	  0.3237	   0.324	   4.075
   69	  1.2000	  0.3287	   0.329	   4.135
   70	  1.2200	  0.3337	   0.334	   4.195
   71	  1.2200	  0.3388	   0.339	   4.255
   72	  1.2200	  0.3438	   0.344	   4.315
   73	  1.2400	  0.3487	   0.349	   4.375
   74	  1.2400	  0.3537	   0.354	   4.435
   75	  1.2400	  0.3587	   0.359	   4.495
   76	  1.2600	  0.3625	   0.362	   4.555
   77	  1.2600	  0.3688	   0.369	   4.615
   78	  1.2600	  0.3725	   0.373	   4.675
   79	  1.2800	  0.3775	   0.377	   4.735
   80	  1.2800	  0.3825	   0.382	   4.795
   81	  1.2800	  0.3887	   0.389	   4.855
   82	  1.2800	  0.3925	   0.392	   4.915
   83	  1.3000	  0.3987	   0.399	   4.975
   84	  1.3000	  0.4025	   0.403	   5.035
   85	  1.3000	  0.4075	   0.407	   5.095
   86	  1.3200	  0.4137	   0.414	   5.155
   87	  1.3200	  0.4175	   0.417	   5.215
   88	  1.3200	  0.4237	   0.424	   5.275
   89	  1.3400	  0.4287	   0.429	   5.335
   90	  1.3400	  0.4338	   0.434	   5.395
   91	  1.3400	  0.4387	   0.439	   5.455
   92	  1.3600	  0.4437	   0.444	   5.515
   93	  1.3600	  0.4487	   0.449	   5.575
   94	  1.3600	  0.4525	   0.452	   5.635
   95	  1.3600	  0.4587	   0.459	   5.695
   96	  1.3800	  0.4625	   0.462	   5.755
   97	  1.3800	  0.4688	   0.469	   5.815
   98	  1.3800	  0.4725	   0.472	   5.875
   99	  1.4000	  0.4787	   0.479	   5.935
  100	  1.4000	  0.4825	   0.482	   5.995
  101	  1.4000	  0.4875	   0.487	   6.055
  102	  1.4200	  0.4925	   0.492	   6.115
  103	  1.4200	  0.4975	   0.498	   6.175
  104	  1.4200	  0.5025	   0.502	   6.235
  105	  1.4200	  0.5075	   0.507	   6.295
  106	  1.4400	  0.5125	   0.512	   6.355
  107	  1.4400	  0.5175	   0.517	   6.415
  108	  1.4400	  0.5225	   0.522	   6.475
  109	  1.4600	  0.5275	   0.527	   6.535
  110	  1.4600	  0.5325	   0.532	   6.595
  111	  1.4600	  0.5375	   0.537	   6.655
  112	  1.4600	  0.5425	   0.542	   6.715
  113	  1.4600	  0.5475	   0.548	   6.775
  114	  1.4600	  0.5525	   0.553	   6.835
  115	  1.4800	  0.5575	   0.558	   6.895
  116	  1.4800	  0.5625	   0.562	   6.955
  117	  1.4800	  0.5675	   0.567	   7.015
  118	  1.4800	  0.5725	   0.572	   7.075
  119	  1.5000	  0.5775	   0.577	   7.135
  120	  1.5000	  0.5825	   0.582	   7.195
  121	  1.5000	  0.5875	   0.587	   7.255
  122	  1.5000	  0.5925	   0.592	   7.315
  123	  1.5000	  0.5975	   0.597	   7.375
  124	  1.5200	  0.6025	   0.602	   7.435
  125	  1.5200	  0.6075	   0.607	   7.495
  126	  1.5200	  0.6125	   0.613	   7.555
  127	  1.5200	  0.6175	   0.618	   7.615
  128	  1.5400	  0.6225	   0.623	   7.675
  129	  1.5400	  0.6275	   0.627	   7.735
  130	  1.5400	  0.6325	   0.632	   7.795
  131	  1.5600	  0.6375	   0.637	   7.855
  132	  1.5600	  0.6425	   0.642	   7.915
  133	  1.5600	  0.6475	   0.647	   7.975
  134	  1.5600	  0.6525	   0.652	   8.035
  135	  1.5800	  0.6575	   0.657	   8.095
  136	  1.5800	  0.6625	   0.662	   8.155
  137	  1.5800	  0.6675	   0.667	   8.215
  138	  1.5800	  0.6725	   0.673	   8.275
  139	  1.5800	  0.6775	   0.678	   8.335
  140	  1.5800	  0.6825	   0.683	   8.395
  141	  1.6000	  0.6875	   0.688	   8.455
  142	  1.6000	  0.6925	   0.692	   8.515
  143	  1.6000	  0.6975	   0.697	   8.575
  144	  1.6000	  0.7025	   0.702	   8.635
  145	  1.6200	  0.7075	   0.707	   8.695
  146	  1.6200	  0.7125	   0.712	   8.755
  147	  1.6200	  0.7175	   0.717	   8.815
  148	  1.6200	  0.7225	   0.722	   8.875
  149	  1.6400	  0.7275	   0.727	   8.935
  150	  1.6400	  0.7325	   0.732	   8.995
  151	  1.6400	  0.7375	   0.738	   9.055
  152	  1.6400	  0.7425	   0.743	   9.115
  153	  1.6400	  0.7475	   0.748	   9.175
  154	  1.6400	  0.7525	   0.752	   9.235
  155	  1.6400	  0.7575	   0.757	   9.295
  156	  1.6600	  0.7612	   0.761	   9.355
  157	  1.6600	  0.7662	   0.766	   9.415
  158	  1.6600	  0.7713	   0.771	   9.475
  159	  1.6600	  0.7763	   0.776	   9.535
  160	  1.6600	  0.7812	   0.781	   9.595
  161	  1.6800	  0.7862	   0.786	   9.655
  162	  1.6800	  0.7912	   0.791	   9.715
  163	  1.6800	  0.7962	   0.796	   9.775
  164	  1.6800	  0.8012	   0.801	   9.835
  165	  1.7000	  0.8062	   0.806	   9.895
  166	  1.7000	  0.8112	   0.811	   9.955
  167	  1.7000	  0.8162	   0.816	  10.015
  168	  1.7200	  0.8212	   0.821	  10.075
  169	  1.7200	  0.8262	   0.826	  10.135
  170	  1.7200	  0.8312	   0.831	  10.195
  171	  1.7200	  0.8363	   0.836	  10.255
  172	  1.7200	  0.8413	   0.841	  10.315
  173	  1.7400	  0.8462	   0.846	  10.375
  174	  1.7400	  0.8512	   0.851	  10.435
  175	  1.7400	  0.8562	   0.856	  10.495
  176	  1.7400	  0.8612	   0.861	  10.555
  177	  1.7600	  0.8675	   0.868	  10.615
  178	  1.7600	  0.8725	   0.873	  10.675
  179	  1.7600	  0.8775	   0.877	  10.735
  180	  1.7800	  0.8825	   0.882	  10.795
  181	  1.7800	  0.8875	   0.887	  10.855
  182	  1.7800	  0.8912	   0.891	  10.915
  183	  1.7800	  0.8975	   0.897	  10.975
  184	  1.8000	  0.9013	   0.901	  11.035
  185	  1.8000	  0.9062	   0.906	  11.095
  186	  1.8000	  0.9112	   0.911	  11.155
  187	  1.8000	  0.9162	   0.916	  11.215
  188	  1.8200	  0.9212	   0.921	  11.275
  189	  1.8200	  0.9262	   0.926	  11.335
  190	  1.8200	  0.9312	   0.931	  11.395
  191	  1.8200	  0.9362	   0.936	  11.455
  192	  1.8400	  0.9412	   0.941	  11.515
  193	  1.8400	  0.9462	   0.946	  11.575
  194	  1.8400	  0.9512	   0.951	  11.635
  195	  1.8400	  0.9562	   0.956	  11.695
  196	  1.8600	  0.9613	   0.961	  11.755
  197	  1.8600	  0.9663	   0.966	  11.815
  198	  1.8600	  0.9712	   0.971	  11.875
  199	  1.8600	  0.9762	   0.976	  11.935
  200	  1.8800	  0.9812	   0.981	  11.995
  201	  1.8800	  0.9862	   0.986	  12.055
  202	  1.8800	  0.9912	   0.991	  12.115
  203	  1.8800	  0.9962	   0.996	  12.175
  204	  1.9000	  1.0013	   1.001	  12.235
  205	  1.9000	  1.0063	   1.006	  12.295
  206	  1.9000	  1.0113	   1.011	  12.355
  207	  1.9000	  1.0163	   1.016	  12.415
  208	  1.9200	  1.0213	   1.021	  12.475
  209	  1.9200	  1.0263	   1.026	  12.535
  210	  1.9400	  1.0312	   1.031	  12.595
  211	  1.9400	  1.0362	   1.036	  12.655
  212	  1.9400	  1.0412	   1.041	  12.715
  213	  1.9400	  1.0462	   1.046	  12.775
  214	  1.9600	  1.0512	   1.051	  12.835
  215	  1.9600	  1.0562	   1.056	  12.895
  216	  1.9800	  1.0612	   1.061	  12.955
  217	  1.9800	  1.0662	   1.066	  13.015
  218	  1.9800	  1.0712	   1.071	  13.075
  219	  2.0000	  1.0762	   1.076	  13.135
  220	  2.0000	  1.0812	   1.081	  13.195
  221	  2.0000	  1.0862	   1.086	  13.255
  222	  2.0200	  1.0912	   1.091	  13.315
  223	  2.0200	  1.0962	   1.096	  13.375
  224	  2.0200	  1.1012	   1.101	  13.435
  225	  2.0400	  1.1062	   1.106	  13.495
  226	  2.0400	  1.1112	   1.111	  13.555
  227	  2.0400	  1.1162	   1.116	  13.615
  228	  2.0600	  1.1213	   1.121	  13.675
  229	  2.0600	  1.1263	   1.126	  13.735
  230	  2.0600	  1.1313	   1.131	  13.795
  231	  2.0800	  1.1363	   1.136	  13.855
  232	  2.0800	  1.1413	   1.141	  13.915
  233	  2.0800	  1.1463	   1.146	  13.975
  234	  2.1000	  1.1513	   1.151	  14.035
  235	  2.1000	  1.1562	   1.156	  14.095
  236	  2.1200	  1.1612	   1.161	  14.155
  237	  2.1200	  1.1662	   1.166	  14.215
  238	  2.1200	  1.1712	   1.171	  14.275
  239	  2.1400	  1.1762	   1.176	  14.335
  240	  2.1400	  1.1812	   1.181	  14.395
  241	  2.1400	  1.1862	   1.186	  14.455
  242	  2.1600	  1.1912	   1.191	  14.515
  243	  2.1600	  1.1962	   1.196	  14.575
  244	  2.1600	  1.2012	   1.201	  14.635
  245	  2.1800	  1.2062	   1.206	  14.695
  246	  2.1800	  1.2112	   1.211	  14.755
  247	  2.1800	  1.2162	   1.216	  14.815
  248	  2.2000	  1.2212	   1.221	  14.875
  249	  2.2000	  1.2262	   1.226	  14.935
  250	  2.2000	  1.2312	   1.231	  14.995
  251	  2.2200	  1.2362	   1.236	  15.055
  252	  2.2200	  1.2412	   1.241	  15.115
  253	  2.2400	  1.2475	   1.247	  15.175
  254	  2.2400	  1.2525	   1.252	  15.235
  255	  2.2400	  1.2575	   1.257	  15.295
  256	  2.2600	  1.2625	   1.262	  15.355
  257	  2.2600	  1.2675	   1.267	  15.415
  258	  2.2600	  1.2725	   1.272	  15.475
  259	  2.2800	  1.2775	   1.277	  15.535
  260	  2.2800	  1.2825	   1.283	  15.595
  261	  2.2800	  1.2875	   1.288	  15.655
  262	  2.3000	  1.2925	   1.293	  15.715
  263	  2.3000	  1.2975	   1.298	  15.775
  264	  2.3000	  1.3025	   1.303	  15.835
  265	  2.3000	  1.3075	   1.308	  15.895
  266	  2.3000	  1.3125	   1.312	  15.955
  267	  2.3200	  1.3175	   1.317	  16.015
  268	  2.3200	  1.3225	   1.322	  16.075
  269	  2.3200	  1.3275	   1.327	  16.135
  270	  2.3400	  1.3325	   1.332	  16.195
  271	  2.3400	  1.3375	   1.337	  16.255
  272	  2.3400	  1.3425	   1.342	  16.315
  273	  2.3600	  1.3475	   1.347	  16.375
  274	  2.3600	  1.3525	   1.352	  16.435
  275	  2.3600	  1.3575	   1.357	  16.495
  276	  2.3800	  1.3612	   1.361	  16.555
  277	  2.3800	  1.3675	   1.367	  16.615
  278	  2.3800	  1.3725	   1.372	  16.675
  279	  2.4000	  1.3775	   1.377	  16.735
  280	  2.4000	  1.3825	   1.382	  16.795
  281	  2.4000	  1.3875	   1.387	  16.855
  282	  2.4200	  1.3925	   1.392	  16.915
  283	  2.4200	  1.3975	   1.397	  16.975
  284	  2.4200	  1.4025	   1.402	  17.035
  285	  2.4400	  1.4075	   1.407	  17.095
  286	  2.4400	  1.4125	   1.413	  17.155
  287	  2.4400	  1.4175	   1.418	  17.215
  288	  2.4400	  1.4225	   1.423	  17.275
  289	  2.4600	  1.4275	   1.428	  17.335
  290	  2.4600	  1.4325	   1.433	  17.395
  291	  2.4800	  1.4375	   1.438	  17.455
  292	  2.4800	  1.4425	   1.442	  17.515
  293	  2.4800	  1.4475	   1.447	  17.575
  294	  2.5000	  1.4525	   1.452	  17.635
  295	  2.5000	  1.4575	   1.457	  17.695
  296	  2.5200	  1.4625	   1.462	  17.755
  297	  2.5200	  1.4675	   1.467	  17.815
  298	  2.5200	  1.4725	   1.472	  17.875
  299	  2.5400	  1.4775	   1.477	  17.935
  300	  2.5400	  1.4825	   1.482	  17.995
  301	  2.5400	  1.4875	   1.487	  18.055
  302	  2.5600	  1.4925	   1.492	  18.115
  303	  2.5600	  1.4975	   1.497	  18.175
  304	  2.5600	  1.5025	   1.502	  18.235
  305	  2.5800	  1.5075	   1.507	  18.295
  306	  2.5800	  1.5125	   1.512	  18.355
  307	  2.5800	  1.5175	   1.517	  18.415
  308	  2.6000	  1.5225	   1.522	  18.475
  309	  2.6000	  1.5275	   1.527	  18.535
  310	  2.6000	  1.5325	   1.532	  18.595
  311	  2.6200	  1.5375	   1.538	  18.655
  312	  2.6200	  1.5425	   1.543	  18.715
  313	  2.6200	  1.5475	   1.548	  18.775
  314	  2.6400	  1.5525	   1.553	  18.835
  315	  2.6400	  1.5575	   1.558	  18.895
  316	  2.6400	  1.5625	   1.562	  18.955
  317	  2.6600	  1.5675	   1.567	  19.015
  318	  2.6600	  1.5725	   1.572	  19.075
  319	  2.6800	  1.5775	   1.577	  19.135
  320	  2.6800	  1.5825	   1.582	  19.195
  321	  2.7000	  1.5875	   1.587	  19.255
  322	  2.7000	  1.5925	   1.592	  19.315
  323	  2.7000	  1.5975	   1.597	  19.375
  324	  2.7200	  1.6025	   1.602	  19.435
  325	  2.7200	  1.6075	   1.607	  19.495
  326	  2.7400	  1.6125	   1.612	  19.555
  327	  2.7400	  1.6175	   1.617	  19.615
  328	  2.7400	  1.6225	   1.622	  19.675
  329	  2.7600	  1.6275	   1.627	  19.735
  330	  2.7600	  1.6325	   1.632	  19.795
  331	  2.7800	  1.6375	   1.637	  19.855
  332	  2.7800	  1.6425	   1.642	  19.915
  333	  2.7800	  1.6475	   1.647	  19.975
  334	  2.8000	  1.6525	   1.652	  20.035
  335	  2.8000	  1.6575	   1.657	  20.095
  336	  2.8000	  1.6625	   1.662	  20.155
  337	  2.8200	  1.6675	   1.668	  20.215
  338	  2.8200	  1.6725	   1.673	  20.275
  339	  2.8400	  1.6775	   1.678	  20.335
  340	  2.8400	  1.6825	   1.683	  20.395
  341	  2.8400	  1.6875	   1.688	  20.455
  342	  2.8600	  1.6925	   1.692	  20.515
  343	  2.8600	  1.6975	   1.697	  20.575
  344	  2.8600	  1.7025	   1.702	  20.635
  345	  2.8800	  1.7075	   1.707	  20.695
  346	  2.8800	  1.7125	   1.712	  20.755
  347	  2.9000	  1.7175	   1.717	  20.815
  348	  2.9000	  1.7225	   1.722	  20.875
  349	  2.9200	  1.7275	   1.727	  20.935
  350	  2.9200	  1.7325	   1.732	  20.995
  351	  2.9200	  1.7375	   1.737	  21.055
  352	  2.9400	  1.7425	   1.742	  21.115
  353	  2.9400	  1.7475	   1.747	  21.175
  354	  2.9600	  1.7525	   1.752	  21.235
  355	  2.9600	  1.7575	   1.757	  21.295
  356	  2.9800	  1.7625	   1.762	  21.355
  357	  2.9800	  1.7675	   1.767	  21.415
  358	  3.0000	  1.7725	   1.772	  21.475
  359	  3.0000	  1.7775	   1.777	  21.535
  360	  3.0200	  1.7825	   1.782	  21.595
  361	  3.0400	  1.7875	   1.787	  21.655
  362	  3.0400	  1.7925	   1.793	  21.715
  363	  3.0600	  1.7975	   1.798	  21.775
  364	  3.0600	  1.8025	   1.803	  21.835
  365	  3.0800	  1.8075	   1.808	  21.895
  366	  3.0800	  1.8125	   1.812	  21.955
  367	  3.1000	  1.8175	   1.817	  22.015
  368	  3.1200	  1.8225	   1.822	  22.075
  369	  3.1200	  1.8275	   1.827	  22.135
  370	  3.1400	  1.8338	   1.834	  22.195
  371	  3.1400	  1.8388	   1.839	  22.255
  372	  3.1600	  1.8438	   1.844	  22.315
  373	  3.1600	  1.8487	   1.849	  22.375
  374	  3.1800	  1.8537	   1.854	  22.435
  375	  3.2000	  1.8587	   1.859	  22.495
  376	  3.2200	  1.8637	   1.864	  22.555
  377	  3.2200	  1.8687	   1.869	  22.615
  378	  3.2400	  1.8737	   1.874	  22.675
  379	  3.2400	  1.8787	   1.879	  22.735
  380	  3.2600	  1.8837	   1.884	  22.795
  381	  3.2800	  1.8887	   1.889	  22.855
  382	  3.2800	  1.8937	   1.894	  22.915
  383	  3.3000	  1.8987	   1.899	  22.975
  384	  3.3200	  1.9037	   1.904	  23.035
  385	  3.3200	  1.9087	   1.909	  23.095
  386	  3.3400	  1.9137	   1.914	  23.155
  387	  3.3600	  1.9187	   1.919	  23.215
  388	  3.3600	  1.9237	   1.924	  23.275
  389	  3.3800	  1.9287	   1.929	  23.335
  390	  3.4000	  1.9337	   1.934	  23.395
  391	  3.4200	  1.9387	   1.939	  23.455
  392	  3.4200	  1.9437	   1.944	  23.515
  393	  3.4400	  1.9487	   1.949	  23.575
  394	  3.4600	  1.9538	   1.954	  23.635
  395	  3.4600	  1.9588	   1.959	  23.695
  396	  3.4800	  1.9638	   1.964	  23.755
  397	  3.5000	  1.9688	   1.969	  23.815
  398	  3.5000	  1.9737	   1.974	  23.875
  399	  3.5200	  1.9787	   1.979	  23.935
  400	  3.5400	  1.9837	   1.984	  23.995
  401	  3.5600	  1.9887	   1.989	  24.055
  402	  3.5600	  1.9937	   1.994	  24.115
  403	  3.5800	  1.9987	   1.999	  24.175
  404	  3.6000	  2.0037	   2.004	  24.235
  405	  3.6200	  2.0087	   2.009	  24.295
  406	  3.6200	  2.0137	   2.014	  24.355
  407	  3.6400	  2.0187	   2.019	  24.415
  408	  3.6600	  2.0238	   2.024	  24.475
  409	  3.6800	  2.0287	   2.029	  24.535
  410	  3.6800	  2.0338	   2.034	  24.595
  411	  3.7000	  2.0387	   2.039	  24.655
  412	  3.7200	  2.0438	   2.044	  24.715
  413	  3.7200	  2.0487	   2.049	  24.775
  414	  3.7400	  2.0538	   2.054	  24.835
  415	  3.7600	  2.0587	   2.059	  24.895
  416	  3.7800	  2.0638	   2.064	  24.955
  417	  3.7800	  2.0687	   2.069	  25.015
  418	  3.8000	  2.0738	   2.074	  25.075
  419	  3.8200	  2.0787	   2.079	  25.135
  420	  3.8400	  2.0838	   2.084	  25.195
  421	  3.8600	  2.0887	   2.089	  25.255
  422	  3.8600	  2.0950	   2.095	  25.315
  423	  3.8800	  2.0987	   2.099	  25.375
  424	  3.9000	  2.1050	   2.105	  25.435
  425	  3.9200	  2.1087	   2.109	  25.495
  426	  3.9400	  2.1150	   2.115	  25.555
  427	  3.9400	  2.1200	   2.120	  25.615
  428	  3.9600	  2.1250	   2.125	  25.675
  429	  3.9800	  2.1300	   2.130	  25.735
  430	  4.0000	  2.1350	   2.135	  25.795
  431	  4.0200	  2.1400	   2.140	  25.855
  432	  4.0200	  2.1450	   2.145	  25.915
  433	  4.0400	  2.1500	   2.150	  25.975
  434	  4.0600	  2.1550	   2.155	  26.035
  435	  4.0800	  2.1600	   2.160	  26.095
  436	  4.1000	  2.1650	   2.165	  26.155
  437	  4.1200	  2.1700	   2.170	  26.215
  438	  4.1200	  2.1750	   2.175	  26.275
  439	  4.1400	  2.1800	   2.180	  26.335
  440	  4.1600	  2.1850	   2.185	  26.395
  441	  4.1800	  2.1900	   2.190	  26.455
  442	  4.2000	  2.1950	   2.195	  26.515
  443	  4.2200	  2.2000	   2.200	  26.575
  444	  4.2400	  2.2050	   2.205	  26.635
  445	  4.2600	  2.2100	   2.210	  26.695
  446	  4.2800	  2.2150	   2.215	  26.755
  447	  4.3000	  2.2200	   2.220	  26.815
  448	  4.3000	  2.2250	   2.225	  26.875
  449	  4.3200	  2.2300	   2.230	  26.935
  450	  4.3400	  2.2350	   2.235	  26.995
  451	  4.3600	  2.2400	   2.240	  27.055
  452	  4.3800	  2.2450	   2.245	  27.115
  453	  4.4000	  2.2500	   2.250	  27.175
  454	  4.4200	  2.2550	   2.255	  27.235
  455	  4.4400	  2.2600	   2.260	  27.295
  456	  4.4600	  2.2650	   2.265	  27.355
  457	  4.4800	  2.2700	   2.270	  27.415
  458	  4.5000	  2.2750	   2.275	  27.475
  459	  4.5200	  2.2800	   2.280	  27.535
  460	  4.5400	  2.2850	   2.285	  27.595
  461	  4.5400	  2.2900	   2.290	  27.655
  462	  4.5600	  2.2950	   2.295	  27.715
  463	  4.5800	  2.3000	   2.300	  27.775
  464	  4.6000	  2.3050	   2.305	  27.835
  465	  4.6200	  2.3100	   2.310	  27.895
  466	  4.6400	  2.3150	   2.315	  27.955
  467	  4.6600	  2.3200	   2.320	  28.015
  468	  4.6800	  2.3250	   2.325	  28.075
  469	  4.7000	  2.3300	   2.330	  28.135
  470	  4.7200	  2.3350	   2.335	  28.195
  471	  4.7400	  2.3400	   2.340	  28.255
