0
Diameter:	   3.00
   6.00
Area:	  18.0000
Gauge:	  25.00
2009-1-20
Polimero
amostra 20mm/min
DataNumber:	3772
Order	Load(kN)	Defor(mm)	Stroke(mm)	Time(s)
    0	  0.0000	  0.0000	   0.000	   0.000
    1	  0.0000	  0.0225	   0.022	   0.055
    2	  0.0200	  0.0712	   0.071	   0.115
    3	  0.0200	  0.1212	   0.121	   0.175
    4	  0.0200	  0.1713	   0.171	   0.235
    5	  0.0600	  0.2212	   0.221	   0.295
    6	  0.0800	  0.2712	   0.271	   0.355
    7	  0.1000	  0.3212	   0.321	   0.415
    8	  0.1200	  0.3713	   0.371	   0.475
    9	  0.1400	  0.4212	   0.421	   0.535
   10	  0.1600	  0.4712	   0.471	   0.595
   11	  0.1800	  0.5213	   0.521	   0.655
   12	  0.2000	  0.5712	   0.571	   0.715
   13	  0.2200	  0.6212	   0.621	   0.775
   14	  0.2400	  0.6712	   0.671	   0.835
   15	  0.2400	  0.7212	   0.721	   0.895
   16	  0.2600	  0.7713	   0.771	   0.955
   17	  0.2800	  0.8212	   0.821	   1.015
   18	  0.2800	  0.8712	   0.871	   1.075
   19	  0.3000	  0.9200	   0.920	   1.135
   20	  0.3000	  0.9712	   0.971	   1.195
   21	  0.3200	  1.0213	   1.021	   1.255
   22	  0.3200	  1.0712	   1.071	   1.315
   23	  0.3400	  1.1213	   1.121	   1.375
   24	  0.3400	  1.1712	   1.171	   1.435
   25	  0.3600	  1.2212	   1.221	   1.495
   26	  0.3600	  1.2713	   1.271	   1.555
   27	  0.3600	  1.3212	   1.321	   1.615
   28	  0.3800	  1.3712	   1.371	   1.675
   29	  0.3800	  1.4225	   1.423	   1.735
   30	  0.3800	  1.4725	   1.472	   1.795
   31	  0.4000	  1.5225	   1.522	   1.855
   32	  0.4000	  1.5725	   1.572	   1.915
   33	  0.4000	  1.6237	   1.624	   1.975
   34	  0.4000	  1.6725	   1.673	   2.035
   35	  0.4200	  1.7225	   1.722	   2.095
   36	  0.4200	  1.7737	   1.774	   2.155
   37	  0.4200	  1.8237	   1.824	   2.215
   38	  0.4200	  1.8737	   1.874	   2.275
   39	  0.4200	  1.9237	   1.924	   2.335
   40	  0.4400	  1.9737	   1.974	   2.395
   41	  0.4400	  2.0238	   2.024	   2.455
   42	  0.4400	  2.0738	   2.074	   2.515
   43	  0.4400	  2.1237	   2.124	   2.575
   44	  0.4400	  2.1737	   2.174	   2.635
   45	  0.4400	  2.2237	   2.224	   2.695
   46	  0.4400	  2.2738	   2.274	   2.755
   47	  0.4400	  2.3238	   2.324	   2.815
   48	  0.4400	  2.3737	   2.374	   2.875
   49	  0.4600	  2.4250	   2.425	   2.935
   50	  0.4600	  2.4737	   2.474	   2.995
   51	  0.4600	  2.5237	   2.524	   3.055
   52	  0.4600	  2.5750	   2.575	   3.115
   53	  0.4600	  2.6250	   2.625	   3.175
   54	  0.4600	  2.6750	   2.675	   3.235
   55	  0.4600	  2.7250	   2.725	   3.295
   56	  0.4600	  2.7762	   2.776	   3.355
   57	  0.4600	  2.8250	   2.825	   3.415
   58	  0.4600	  2.8763	   2.876	   3.475
   59	  0.4600	  2.9262	   2.926	   3.535
   60	  0.4600	  2.9762	   2.976	   3.595
   61	  0.4600	  3.0262	   3.026	   3.655
   62	  0.4600	  3.0762	   3.076	   3.715
   63	  0.4600	  3.1275	   3.127	   3.775
   64	  0.4600	  3.1762	   3.176	   3.835
   65	  0.4600	  3.2275	   3.227	   3.895
   66	  0.4600	  3.2775	   3.277	   3.955
   67	  0.4600	  3.3275	   3.327	   4.015
   68	  0.4600	  3.3775	   3.377	   4.075
   69	  0.4600	  3.4275	   3.428	   4.135
   70	  0.4600	  3.4787	   3.479	   4.195
   71	  0.4600	  3.5275	   3.527	   4.255
   72	  0.4600	  3.5787	   3.579	   4.315
   73	  0.4600	  3.6287	   3.629	   4.375
   74	  0.4600	  3.6800	   3.680	   4.435
   75	  0.4600	  3.7300	   3.730	   4.495
   76	  0.4400	  3.7787	   3.779	   4.555
   77	  0.4400	  3.8300	   3.830	   4.615
   78	  0.4400	  3.8800	   3.880	   4.675
   79	  0.4400	  3.9300	   3.930	   4.735
   80	  0.4400	  3.9800	   3.980	   4.795
   81	  0.4400	  4.0312	   4.031	   4.855
   82	  0.4400	  4.0812	   4.081	   4.915
   83	  0.4400	  4.1312	   4.131	   4.975
   84	  0.4400	  4.1813	   4.181	   5.035
   85	  0.4400	  4.2312	   4.231	   5.095
   86	  0.4400	  4.2825	   4.282	   5.155
   87	  0.4400	  4.3325	   4.332	   5.215
   88	  0.4400	  4.3825	   4.382	   5.275
   89	  0.4400	  4.4325	   4.432	   5.335
   90	  0.4400	  4.4837	   4.484	   5.395
   91	  0.4400	  4.5338	   4.534	   5.455
   92	  0.4400	  4.5850	   4.585	   5.515
   93	  0.4200	  4.6350	   4.635	   5.575
   94	  0.4200	  4.6850	   4.685	   5.635
   95	  0.4200	  4.7350	   4.735	   5.695
   96	  0.4200	  4.7850	   4.785	   5.755
   97	  0.4200	  4.8362	   4.836	   5.815
   98	  0.4200	  4.8863	   4.886	   5.875
   99	  0.4200	  4.9375	   4.938	   5.935
  100	  0.4200	  4.9875	   4.987	   5.995
  101	  0.4200	  5.0363	   5.036	   6.055
  102	  0.4200	  5.0875	   5.088	   6.115
  103	  0.4200	  5.1375	   5.137	   6.175
  104	  0.4200	  5.1875	   5.188	   6.235
  105	  0.4200	  5.2375	   5.237	   6.295
  106	  0.4200	  5.2887	   5.289	   6.355
  107	  0.4000	  5.3387	   5.339	   6.415
  108	  0.4200	  5.3888	   5.389	   6.475
  109	  0.4200	  5.4387	   5.439	   6.535
  110	  0.4000	  5.4887	   5.489	   6.595
  111	  0.4000	  5.5400	   5.540	   6.655
  112	  0.4000	  5.5900	   5.590	   6.715
  113	  0.4000	  5.6400	   5.640	   6.775
  114	  0.4000	  5.6900	   5.690	   6.835
  115	  0.4000	  5.7400	   5.740	   6.895
  116	  0.4000	  5.7900	   5.790	   6.955
  117	  0.4000	  5.8412	   5.841	   7.015
  118	  0.4000	  5.8912	   5.891	   7.075
  119	  0.4000	  5.9400	   5.940	   7.135
  120	  0.4000	  5.9913	   5.991	   7.195
  121	  0.4000	  6.0412	   6.041	   7.255
  122	  0.4000	  6.0912	   6.091	   7.315
  123	  0.4000	  6.1412	   6.141	   7.375
  124	  0.4000	  6.1925	   6.192	   7.435
  125	  0.4000	  6.2425	   6.242	   7.495
  126	  0.3800	  6.2912	   6.291	   7.555
  127	  0.3800	  6.3425	   6.342	   7.615
  128	  0.4000	  6.3925	   6.392	   7.675
  129	  0.3800	  6.4400	   6.440	   7.735
  130	  0.3800	  6.4900	   6.490	   7.795
  131	  0.3800	  6.5412	   6.541	   7.855
  132	  0.3800	  6.5900	   6.590	   7.915
  133	  0.3800	  6.6412	   6.641	   7.975
  134	  0.3800	  6.6912	   6.691	   8.035
  135	  0.3800	  6.7413	   6.741	   8.095
  136	  0.3800	  6.7912	   6.791	   8.155
  137	  0.3800	  6.8425	   6.842	   8.215
  138	  0.3800	  6.8925	   6.892	   8.275
  139	  0.3800	  6.9425	   6.942	   8.335
  140	  0.3800	  6.9937	   6.994	   8.395
  141	  0.3800	  7.0437	   7.044	   8.455
  142	  0.3800	  7.0938	   7.094	   8.515
  143	  0.3800	  7.1437	   7.144	   8.575
  144	  0.3800	  7.1937	   7.194	   8.635
  145	  0.3800	  7.2437	   7.244	   8.695
  146	  0.3800	  7.2925	   7.293	   8.755
  147	  0.3800	  7.3425	   7.342	   8.815
  148	  0.3800	  7.3925	   7.392	   8.875
  149	  0.3600	  7.4437	   7.444	   8.935
  150	  0.3800	  7.4937	   7.494	   8.995
  151	  0.3600	  7.5437	   7.544	   9.055
  152	  0.3600	  7.5938	   7.594	   9.115
  153	  0.3600	  7.6437	   7.644	   9.175
  154	  0.3600	  7.6950	   7.695	   9.235
  155	  0.3600	  7.7450	   7.745	   9.295
  156	  0.3600	  7.7950	   7.795	   9.355
  157	  0.3600	  7.8450	   7.845	   9.415
  158	  0.3600	  7.8950	   7.895	   9.475
  159	  0.3600	  7.9450	   7.945	   9.535
  160	  0.3600	  7.9950	   7.995	   9.595
  161	  0.3600	  8.0462	   8.046	   9.655
  162	  0.3600	  8.0950	   8.095	   9.715
  163	  0.3600	  8.1462	   8.146	   9.775
  164	  0.3600	  8.1962	   8.196	   9.835
  165	  0.3600	  8.2475	   8.247	   9.895
  166	  0.3600	  8.2975	   8.297	   9.955
  167	  0.3600	  8.3475	   8.347	  10.015
  168	  0.3400	  8.3975	   8.398	  10.075
  169	  0.3400	  8.4475	   8.448	  10.135
  170	  0.3400	  8.4987	   8.499	  10.195
  171	  0.3600	  8.5487	   8.549	  10.255
  172	  0.3400	  8.5988	   8.599	  10.315
  173	  0.3400	  8.6487	   8.649	  10.375
  174	  0.3400	  8.6987	   8.699	  10.435
  175	  0.3400	  8.7487	   8.749	  10.495
  176	  0.3400	  8.7987	   8.799	  10.555
  177	  0.3400	  8.8500	   8.850	  10.615
  178	  0.3400	  8.9000	   8.900	  10.675
  179	  0.3400	  8.9500	   8.950	  10.735
  180	  0.3400	  9.0000	   9.000	  10.795
  181	  0.3400	  9.0512	   9.051	  10.855
  182	  0.3400	  9.1012	   9.101	  10.915
  183	  0.3400	  9.1512	   9.151	  10.975
  184	  0.3400	  9.2013	   9.201	  11.035
  185	  0.3400	  9.2513	   9.251	  11.095
  186	  0.3400	  9.3012	   9.301	  11.155
  187	  0.3400	  9.3512	   9.351	  11.215
  188	  0.3400	  9.4025	   9.403	  11.275
  189	  0.3200	  9.4513	   9.451	  11.335
  190	  0.3200	  9.5012	   9.501	  11.395
  191	  0.3200	  9.5512	   9.551	  11.455
  192	  0.3200	  9.6025	   9.602	  11.515
  193	  0.3200	  9.6525	   9.653	  11.575
  194	  0.3200	  9.7013	   9.701	  11.635
  195	  0.3200	  9.7525	   9.752	  11.695
  196	  0.3200	  9.8025	   9.802	  11.755
  197	  0.3200	  9.8525	   9.852	  11.815
  198	  0.3200	  9.9025	   9.903	  11.875
  199	  0.3200	  9.9537	   9.954	  11.935
  200	  0.3200	 10.0037	  10.004	  11.995
  201	  0.3200	 10.0525	  10.052	  12.055
  202	  0.3200	 10.1038	  10.104	  12.115
  203	  0.3200	 10.1537	  10.154	  12.175
  204	  0.3200	 10.2025	  10.202	  12.235
  205	  0.3200	 10.2525	  10.252	  12.295
  206	  0.3000	 10.3038	  10.304	  12.355
  207	  0.3000	 10.3525	  10.352	  12.415
  208	  0.3000	 10.4037	  10.404	  12.475
  209	  0.3000	 10.4537	  10.454	  12.535
  210	  0.3000	 10.5037	  10.504	  12.595
  211	  0.3000	 10.5538	  10.554	  12.655
  212	  0.3000	 10.6025	  10.602	  12.715
  213	  0.3000	 10.6537	  10.654	  12.775
  214	  0.3000	 10.7037	  10.704	  12.835
  215	  0.3000	 10.7537	  10.754	  12.895
  216	  0.3000	 10.8038	  10.804	  12.955
  217	  0.3000	 10.8538	  10.854	  13.015
  218	  0.3000	 10.9037	  10.904	  13.075
  219	  0.2800	 10.9537	  10.954	  13.135
  220	  0.2800	 11.0050	  11.005	  13.195
  221	  0.2800	 11.0538	  11.054	  13.255
  222	  0.2800	 11.1050	  11.105	  13.315
  223	  0.2800	 11.1550	  11.155	  13.375
  224	  0.2800	 11.2050	  11.205	  13.435
  225	  0.2800	 11.2550	  11.255	  13.495
  226	  0.2800	 11.3050	  11.305	  13.555
  227	  0.2800	 11.3550	  11.355	  13.615
  228	  0.2800	 11.4050	  11.405	  13.675
  229	  0.2600	 11.4563	  11.456	  13.735
  230	  0.2600	 11.5050	  11.505	  13.795
  231	  0.2600	 11.5550	  11.555	  13.855
  232	  0.2600	 11.6050	  11.605	  13.915
  233	  0.2600	 11.6550	  11.655	  13.975
  234	  0.2600	 11.7050	  11.705	  14.035
  235	  0.2600	 11.7550	  11.755	  14.095
  236	  0.2600	 11.8062	  11.806	  14.155
  237	  0.2600	 11.8550	  11.855	  14.215
  238	  0.2400	 11.9062	  11.906	  14.275
  239	  0.2400	 11.9563	  11.956	  14.335
  240	  0.2400	 12.0075	  12.007	  14.395
  241	  0.2400	 12.0562	  12.056	  14.455
  242	  0.2400	 12.1075	  12.108	  14.515
  243	  0.2400	 12.1575	  12.157	  14.575
  244	  0.2400	 12.2075	  12.207	  14.635
  245	  0.2400	 12.2575	  12.257	  14.695
  246	  0.2400	 12.3075	  12.307	  14.755
  247	  0.2400	 12.3575	  12.358	  14.815
  248	  0.2400	 12.4075	  12.407	  14.875
  249	  0.2400	 12.4587	  12.459	  14.935
  250	  0.2200	 12.5087	  12.509	  14.995
  251	  0.2200	 12.5588	  12.559	  15.055
  252	  0.2200	 12.6087	  12.609	  15.115
  253	  0.2200	 12.6587	  12.659	  15.175
  254	  0.2200	 12.7100	  12.710	  15.235
  255	  0.2200	 12.7587	  12.759	  15.295
  256	  0.2200	 12.8100	  12.810	  15.355
  257	  0.2200	 12.8600	  12.860	  15.415
  258	  0.2200	 12.9100	  12.910	  15.475
  259	  0.2200	 12.9600	  12.960	  15.535
  260	  0.2200	 13.0100	  13.010	  15.595
  261	  0.2200	 13.0612	  13.061	  15.655
  262	  0.2200	 13.1112	  13.111	  15.715
  263	  0.2200	 13.1625	  13.162	  15.775
  264	  0.2200	 13.2125	  13.212	  15.835
  265	  0.2200	 13.2625	  13.262	  15.895
  266	  0.2200	 13.3125	  13.312	  15.955
  267	  0.2200	 13.3637	  13.364	  16.015
  268	  0.2200	 13.4137	  13.414	  16.075
  269	  0.2200	 13.4625	  13.462	  16.135
  270	  0.2200	 13.5138	  13.514	  16.195
  271	  0.2200	 13.5637	  13.564	  16.255
  272	  0.2200	 13.6137	  13.614	  16.315
  273	  0.2200	 13.6637	  13.664	  16.375
  274	  0.2200	 13.7150	  13.715	  16.435
  275	  0.2200	 13.7650	  13.765	  16.495
  276	  0.2200	 13.8150	  13.815	  16.555
  277	  0.2200	 13.8650	  13.865	  16.615
  278	  0.2200	 13.9150	  13.915	  16.675
  279	  0.2200	 13.9650	  13.965	  16.735
  280	  0.2200	 14.0150	  14.015	  16.795
  281	  0.2200	 14.0662	  14.066	  16.855
  282	  0.2200	 14.1163	  14.116	  16.915
  283	  0.2200	 14.1662	  14.166	  16.975
  284	  0.2200	 14.2162	  14.216	  17.035
  285	  0.2200	 14.2662	  14.266	  17.095
  286	  0.2200	 14.3175	  14.318	  17.155
  287	  0.2200	 14.3663	  14.366	  17.215
  288	  0.2200	 14.4175	  14.417	  17.275
  289	  0.2200	 14.4662	  14.466	  17.335
  290	  0.2200	 14.5175	  14.517	  17.395
  291	  0.2200	 14.5675	  14.568	  17.455
  292	  0.2200	 14.6175	  14.617	  17.515
  293	  0.2200	 14.6675	  14.667	  17.575
  294	  0.2200	 14.7175	  14.717	  17.635
  295	  0.2200	 14.7675	  14.767	  17.695
  296	  0.2200	 14.8175	  14.818	  17.755
  297	  0.2200	 14.8675	  14.867	  17.815
  298	  0.2200	 14.9175	  14.917	  17.875
  299	  0.2200	 14.9688	  14.969	  17.935
  300	  0.2200	 15.0187	  15.019	  17.995
  301	  0.2200	 15.0675	  15.068	  18.055
  302	  0.2200	 15.1187	  15.119	  18.115
  303	  0.2200	 15.1687	  15.169	  18.175
  304	  0.2200	 15.2200	  15.220	  18.235
  305	  0.2200	 15.2687	  15.269	  18.295
  306	  0.2200	 15.3200	  15.320	  18.355
  307	  0.2200	 15.3700	  15.370	  18.415
  308	  0.2200	 15.4200	  15.420	  18.475
  309	  0.2200	 15.4700	  15.470	  18.535
  310	  0.2200	 15.5200	  15.520	  18.595
  311	  0.2200	 15.5700	  15.570	  18.655
  312	  0.2200	 15.6200	  15.620	  18.715
  313	  0.2200	 15.6700	  15.670	  18.775
  314	  0.2200	 15.7200	  15.720	  18.835
  315	  0.2200	 15.7712	  15.771	  18.895
  316	  0.2200	 15.8212	  15.821	  18.955
  317	  0.2200	 15.8712	  15.871	  19.015
  318	  0.2200	 15.9212	  15.921	  19.075
  319	  0.2200	 15.9712	  15.971	  19.135
  320	  0.2200	 16.0187	  16.019	  19.195
  321	  0.2200	 16.0688	  16.069	  19.255
  322	  0.2200	 16.1187	  16.119	  19.315
  323	  0.2200	 16.1687	  16.169	  19.375
  324	  0.2200	 16.2200	  16.220	  19.435
  325	  0.2200	 16.2700	  16.270	  19.495
  326	  0.2200	 16.3200	  16.320	  19.555
  327	  0.2200	 16.3700	  16.370	  19.615
  328	  0.2200	 16.4200	  16.420	  19.675
  329	  0.2200	 16.4713	  16.471	  19.735
  330	  0.2200	 16.5200	  16.520	  19.795
  331	  0.2200	 16.5712	  16.571	  19.855
  332	  0.2200	 16.6213	  16.621	  19.915
  333	  0.2200	 16.6712	  16.671	  19.975
  334	  0.2200	 16.7213	  16.721	  20.035
  335	  0.2200	 16.7712	  16.771	  20.095
  336	  0.2200	 16.8225	  16.823	  20.155
  337	  0.2200	 16.8725	  16.872	  20.215
  338	  0.2200	 16.9225	  16.922	  20.275
  339	  0.2200	 16.9725	  16.972	  20.335
  340	  0.2200	 17.0238	  17.024	  20.395
  341	  0.2200	 17.0737	  17.074	  20.455
  342	  0.2200	 17.1237	  17.124	  20.515
  343	  0.2200	 17.1737	  17.174	  20.575
  344	  0.2200	 17.2237	  17.224	  20.635
  345	  0.2200	 17.2750	  17.275	  20.695
  346	  0.2200	 17.3250	  17.325	  20.755
  347	  0.2200	 17.3750	  17.375	  20.815
  348	  0.2200	 17.4263	  17.426	  20.875
  349	  0.2200	 17.4762	  17.476	  20.935
  350	  0.2200	 17.5262	  17.526	  20.995
  351	  0.2200	 17.5763	  17.576	  21.055
  352	  0.2200	 17.6262	  17.626	  21.115
  353	  0.2200	 17.6763	  17.676	  21.175
  354	  0.2200	 17.7275	  17.727	  21.235
  355	  0.2200	 17.7762	  17.776	  21.295
  356	  0.2200	 17.8263	  17.826	  21.355
  357	  0.2200	 17.8762	  17.876	  21.415
  358	  0.2200	 17.9275	  17.927	  21.475
  359	  0.2200	 17.9775	  17.977	  21.535
  360	  0.2200	 18.0262	  18.026	  21.595
  361	  0.2200	 18.0775	  18.077	  21.655
  362	  0.2200	 18.1275	  18.128	  21.715
  363	  0.2200	 18.1787	  18.179	  21.775
  364	  0.2200	 18.2275	  18.227	  21.835
  365	  0.2200	 18.2787	  18.279	  21.895
  366	  0.2200	 18.3287	  18.329	  21.955
  367	  0.2200	 18.3787	  18.379	  22.015
  368	  0.2200	 18.4275	  18.427	  22.075
  369	  0.2200	 18.4775	  18.477	  22.135
  370	  0.2200	 18.5287	  18.529	  22.195
  371	  0.2200	 18.5787	  18.579	  22.255
  372	  0.2200	 18.6287	  18.629	  22.315
  373	  0.2200	 18.6787	  18.679	  22.375
  374	  0.2200	 18.7288	  18.729	  22.435
  375	  0.2200	 18.7787	  18.779	  22.495
  376	  0.2200	 18.8287	  18.829	  22.555
  377	  0.2200	 18.8787	  18.879	  22.615
  378	  0.2200	 18.9287	  18.929	  22.675
  379	  0.2200	 18.9788	  18.979	  22.735
  380	  0.2200	 19.0287	  19.029	  22.795
  381	  0.2200	 19.0787	  19.079	  22.855
  382	  0.2200	 19.1287	  19.129	  22.915
  383	  0.2200	 19.1787	  19.179	  22.975
  384	  0.2200	 19.2288	  19.229	  23.035
  385	  0.2200	 19.2787	  19.279	  23.095
  386	  0.2200	 19.3300	  19.330	  23.155
  387	  0.2200	 19.3787	  19.379	  23.215
  388	  0.2200	 19.4300	  19.430	  23.275
  389	  0.2200	 19.4788	  19.479	  23.335
  390	  0.2200	 19.5300	  19.530	  23.395
  391	  0.2200	 19.5800	  19.580	  23.455
  392	  0.2200	 19.6300	  19.630	  23.515
  393	  0.2200	 19.6800	  19.680	  23.575
  394	  0.2200	 19.7300	  19.730	  23.635
  395	  0.2200	 19.7800	  19.780	  23.695
  396	  0.2200	 19.8300	  19.830	  23.755
  397	  0.2200	 19.8800	  19.880	  23.815
  398	  0.2200	 19.9300	  19.930	  23.875
  399	  0.2200	 19.9800	  19.980	  23.935
  400	  0.2200	 20.0300	  20.030	  23.995
  401	  0.2200	 20.0800	  20.080	  24.055
  402	  0.2200	 20.1300	  20.130	  24.115
  403	  0.2200	 20.1800	  20.180	  24.175
  404	  0.2200	 20.2312	  20.231	  24.235
  405	  0.2200	 20.2812	  20.281	  24.295
  406	  0.2200	 20.3312	  20.331	  24.355
  407	  0.2200	 20.3813	  20.381	  24.415
  408	  0.2200	 20.4325	  20.432	  24.475
  409	  0.2200	 20.4812	  20.481	  24.535
  410	  0.2200	 20.5312	  20.531	  24.595
  411	  0.2200	 20.5825	  20.583	  24.655
  412	  0.2200	 20.6325	  20.632	  24.715
  413	  0.2200	 20.6825	  20.682	  24.775
  414	  0.2200	 20.7325	  20.733	  24.835
  415	  0.2200	 20.7837	  20.784	  24.895
  416	  0.2200	 20.8325	  20.833	  24.955
  417	  0.2200	 20.8825	  20.882	  25.015
  418	  0.2200	 20.9325	  20.932	  25.075
  419	  0.2200	 20.9825	  20.983	  25.135
  420	  0.2200	 21.0337	  21.034	  25.195
  421	  0.2200	 21.0825	  21.083	  25.255
  422	  0.2200	 21.1337	  21.134	  25.315
  423	  0.2200	 21.1838	  21.184	  25.375
  424	  0.2200	 21.2337	  21.234	  25.435
  425	  0.2200	 21.2837	  21.284	  25.495
  426	  0.2200	 21.3337	  21.334	  25.555
  427	  0.2200	 21.3850	  21.385	  25.615
  428	  0.2200	 21.4350	  21.435	  25.675
  429	  0.2200	 21.4850	  21.485	  25.735
  430	  0.2200	 21.5350	  21.535	  25.795
  431	  0.2200	 21.5863	  21.586	  25.855
  432	  0.2200	 21.6362	  21.636	  25.915
  433	  0.2200	 21.6875	  21.688	  25.975
  434	  0.2200	 21.7362	  21.736	  26.035
  435	  0.2200	 21.7862	  21.786	  26.095
  436	  0.2200	 21.8375	  21.837	  26.155
  437	  0.2200	 21.8862	  21.886	  26.215
  438	  0.2200	 21.9375	  21.938	  26.275
  439	  0.2200	 21.9875	  21.987	  26.335
  440	  0.2200	 22.0375	  22.038	  26.395
  441	  0.2200	 22.0875	  22.087	  26.455
  442	  0.2200	 22.1375	  22.137	  26.515
  443	  0.2200	 22.1875	  22.188	  26.575
  444	  0.2200	 22.2375	  22.237	  26.635
  445	  0.2200	 22.2875	  22.288	  26.695
  446	  0.2200	 22.3375	  22.337	  26.755
  447	  0.2200	 22.3888	  22.389	  26.815
  448	  0.2200	 22.4387	  22.439	  26.875
  449	  0.2200	 22.4887	  22.489	  26.935
  450	  0.2200	 22.5387	  22.539	  26.995
  451	  0.2200	 22.5887	  22.589	  27.055
  452	  0.2200	 22.6388	  22.639	  27.115
  453	  0.2200	 22.6887	  22.689	  27.175
  454	  0.2200	 22.7400	  22.740	  27.235
  455	  0.2200	 22.7887	  22.789	  27.295
  456	  0.2200	 22.8400	  22.840	  27.355
  457	  0.2200	 22.8900	  22.890	  27.415
  458	  0.2200	 22.9400	  22.940	  27.475
  459	  0.2200	 22.9900	  22.990	  27.535
  460	  0.2200	 23.0400	  23.040	  27.595
  461	  0.2200	 23.0900	  23.090	  27.655
  462	  0.2200	 23.1400	  23.140	  27.715
  463	  0.2200	 23.1900	  23.190	  27.775
  464	  0.2200	 23.2400	  23.240	  27.835
  465	  0.2200	 23.2913	  23.291	  27.895
  466	  0.2200	 23.3400	  23.340	  27.955
  467	  0.2200	 23.3912	  23.391	  28.015
  468	  0.2200	 23.4412	  23.441	  28.075
  469	  0.2200	 23.4912	  23.491	  28.135
  470	  0.2200	 23.5413	  23.541	  28.195
  471	  0.2200	 23.5912	  23.591	  28.255
